time (s)	energy (uJ)	charge (mC)	voltage (mV)	crossing#mod 255
1338.329491	53.403358	0.022722	2.350254	63
1339.347416	33.093960	0.022715	1.456926	64
1340.397238	52.084885	0.022703	2.294136	65
1341.420062	33.404694	0.022736	1.469271	66
1342.470568	56.361473	0.022758	2.476590	67
1343.496276	39.077141	0.022723	1.719741	68
1344.542093	56.799778	0.022707	2.501464	69
1345.557364	35.091187	0.022728	1.543971	70
1346.613223	55.667141	0.022682	2.454286	71
1347.631155	37.818668	0.022727	1.664028	72
1348.685020	55.610924	0.022711	2.448675	73
1349.695572	33.147415	0.022693	1.460688	74
1350.758803	59.485111	0.022743	2.615511	75
1351.771767	41.306885	0.022736	1.816829	76
1352.829885	60.020184	0.022715	2.642270	77
1353.838902	38.042488	0.022714	1.674874	78
1354.899239	58.100830	0.022715	2.557865	79
1355.912958	40.635223	0.022712	1.789127	80
1356.971006	62.235401	0.022711	2.740316	81
1357.983663	40.142132	0.022699	1.768441	82
1359.038756	59.650833	0.022740	2.623126	83
1360.058248	45.561943	0.022698	2.007286	84
1361.110891	62.082256	0.022715	2.733096	85
1362.124004	42.687695	0.022704	1.880184	86
1363.183283	62.253876	0.022705	2.741851	87
1364.194763	47.123531	0.022707	2.075291	88
1365.260194	65.088463	0.022791	2.855894	89
1366.262493	49.817398	0.022700	2.194563	90
1367.332295	60.224075	0.022728	2.649810	91
1368.325610	49.355400	0.022721	2.172208	92
1369.407414	71.617584	0.022705	3.154279	93
1370.394867	41.999111	0.022733	1.847477	94
1371.478334	74.876732	0.022712	3.296836	95
1372.477724	48.498516	0.022696	2.136904	96
1373.544457	68.926437	0.022731	3.032238	97
1374.549547	50.148281	0.022700	2.209155	98
1375.615415	64.890106	0.022701	2.858450	99
1376.624153	52.531048	0.022691	2.315014	100
1377.685676	69.608467	0.022695	3.067181	101
1378.694310	53.967396	0.022723	2.374967	102
1379.756791	69.255051	0.022733	3.046457	103
1380.764957	54.296516	0.022702	2.391737	104
1381.830452	71.064407	0.022699	3.130734	105
1382.837612	60.426403	0.022680	2.664254	106
1383.902638	70.865913	0.022694	3.122661	107
1384.906615	59.757187	0.022696	2.632913	108
1385.975623	72.300453	0.022692	3.186182	109
1386.975674	60.844360	0.022689	2.681619	110
1388.047917	74.018288	0.022703	3.260316	111
1389.048950	63.408413	0.022692	2.794263	112
1390.121343	74.774582	0.022695	3.294690	113
1391.120152	63.224392	0.022721	2.782613	114
1392.191647	76.408585	0.022701	3.365931	115
1393.194154	65.790039	0.022722	2.895439	116
1394.261777	78.730392	0.022727	3.464126	117
1395.264310	64.570641	0.022720	2.841977	118
1396.331196	78.055962	0.022701	3.438401	119
1397.338969	67.057953	0.022691	2.955235	120
1398.401981	77.182152	0.022731	3.395450	121
1399.411191	119.394897	0.022693	5.261309	122
1400.475850	87.770767	0.022721	3.862907	123
1401.479709	67.222061	0.022700	2.961376	124
1402.550923	81.627502	0.022695	3.596652	125
1403.562401	80.158478	0.022703	3.530765	126
1404.623457	80.235008	0.022705	3.533838	127
1405.617964	67.576973	0.022724	2.973808	128
1406.698143	83.915886	0.022778	3.684093	129
1407.688011	70.468430	0.022714	3.102486	130
1408.769927	83.219276	0.022718	3.663068	131
1409.759992	70.929504	0.022694	3.125428	132
1410.841913	84.747780	0.022695	3.734284	133
1411.836226	231.871750	0.022716	10.207323	134
1412.913980	87.081390	0.022721	3.832657	135
1413.908662	77.180405	0.022678	3.403250	136
1415.015210	119.713402	0.022724	5.268116	137
1415.983442	75.225143	0.022708	3.312770	138
1417.052037	88.241104	0.022687	3.889489	139
1418.057043	80.046913	0.022679	3.529565	140
1419.124137	91.371597	0.022712	4.023018	141
1420.130923	181.790482	0.022686	8.013288	142
1421.195815	91.629204	0.022680	4.040019	143
1422.202633	83.178078	0.022692	3.665577	144
1423.267061	91.653404	0.022688	4.039810	145
1424.273965	91.021904	0.022694	4.010857	146
1425.339260	93.093178	0.022684	4.103887	147
1426.345722	84.808502	0.022707	3.734907	148
1427.411990	94.679344	0.022729	4.165599	149
1428.417460	85.519478	0.022694	3.768414	150
1429.483059	95.487617	0.022689	4.208618	151
1430.491262	88.792206	0.022693	3.912711	152
1431.554977	96.208130	0.022766	4.225910	153
1432.562718	89.326340	0.022690	3.936875	154
1433.626375	95.841469	0.022713	4.219667	155
1434.635698	90.171928	0.022679	3.975994	156
1435.699056	98.312904	0.022680	4.334718	157
1436.707223	92.214157	0.022686	4.064863	158
1437.772026	110.972824	0.022688	4.891337	159
1438.781212	96.500504	0.022697	4.251771	160
1439.844291	102.111099	0.022690	4.500188	161
1440.851468	97.237381	0.022691	4.285229	162
1441.916842	102.618027	0.022708	4.519123	163
1442.922819	100.395164	0.022679	4.426857	164
1443.989405	103.076866	0.022708	4.539315	165
1444.993864	100.582428	0.022693	4.432407	166
1446.063975	104.351463	0.022679	4.601296	167
1447.064644	102.843575	0.022710	4.528529	168
1448.137793	104.842796	0.022683	4.622066	169
1449.134060	102.396606	0.022696	4.511608	170
1450.208606	104.861504	0.022682	4.623122	171
1451.206489	103.101219	0.022680	4.545944	172
1452.284274	109.585808	0.022716	4.824215	173
1453.279511	104.806770	0.022679	4.621343	174
1454.354923	108.656937	0.022687	4.789391	175
1455.353441	106.720848	0.022685	4.704473	176
1456.424558	109.978859	0.022686	4.847827	177
1457.426168	106.920883	0.022684	4.713532	178
1458.495553	112.307526	0.022679	4.952146	179
1459.501461	109.145325	0.022706	4.806855	180
1460.565645	124.634903	0.022679	5.495701	181
1461.574850	110.828270	0.022685	4.885637	182
1462.636270	115.439636	0.022704	5.084628	183
1463.647526	114.543900	0.022685	5.049312	184
1464.708904	115.144547	0.022692	5.074310	185
1465.718344	114.394241	0.022674	5.045189	186
1466.783827	121.241852	0.022681	5.345522	187
1467.790778	114.906250	0.022680	5.066466	188
1468.854775	120.022583	0.022680	5.291978	189
1469.862846	117.780228	0.022680	5.193194	190
1470.928293	121.447784	0.022682	5.354285	191
1471.935038	121.195488	0.022683	5.342996	192
1472.999176	122.887459	0.022682	5.417960	193
1474.007840	119.299690	0.022678	5.260552	194
1475.071032	122.089714	0.022681	5.382923	195
1476.081904	127.168953	0.022679	5.607309	196
1477.143578	124.987213	0.022694	5.507615	197
1478.154005	125.797112	0.022680	5.546492	198
